(x) (t) (teta) (y)
50 0 7.1781 71.0571
50 0.1 7.05485 71.3187
50 0.2 6.9316 71.5705
50 0.3 6.80835 71.8025
50 0.4 6.6851 72.0035
50 0.5 6.56185 72.1623
50 0.6 6.4386 72.269
50 0.7 6.31535 72.3165
50 0.8 6.19211 72.3015
50 0.9 6.06886 72.2251
50 1 5.94561 72.0924
50 1.1 5.82236 71.912
50 1.2 5.69911 71.6948
50 1.3 5.57586 71.452
50 1.4 5.45261 71.1943
50 1.5 5.32936 70.931
50 1.6 5.20611 70.6691
50 1.7 5.08286 70.4136
50 1.8 4.95961 70.168
50 1.9 4.83636 69.9343
50 2 4.71311 69.7141
50 2.1 4.58986 69.5085
50 2.2 4.46662 69.3182
50 2.3 4.34337 69.1441
50 2.4 4.22012 68.9866
50 2.5 4.09687 68.8457
50 2.6 3.97362 68.7213
50 2.7 3.85037 68.6134
50 2.8 3.72712 68.5217
50 2.9 3.60387 68.4465
50 3 3.48062 68.388
50 3.1 3.35737 68.347
50 3.2 3.23412 68.3239
50 3.3 3.11087 68.3193
50 3.4 2.98763 68.3331
50 3.5 2.86438 68.3652
50 3.6 2.74113 68.415
50 3.7 2.61788 68.4819
50 3.8 2.49463 68.5654
50 3.9 2.37138 68.6652
50 4 2.24813 68.7812
50 4.1 2.12488 68.9138
50 4.2 2.00163 69.063
50 4.3 1.87838 69.2289
50 4.4 1.75513 69.4111
50 4.5 1.63188 69.6091
50 4.6 1.50863 69.8221
50 4.7 1.38539 70.0492
50 4.8 1.26214 70.2891
50 4.9 1.13889 70.5399
50 5 1.01564 70.7991
50 5.1 0.892389 71.0625
50 5.2 0.769139 71.324
50 5.3 0.64589 71.5755
50 5.4 0.522641 71.807
50 5.5 0.399392 72.0073
50 5.6 0.276143 72.1651
50 5.7 0.152894 72.2706
50 5.8 0.0296445 72.3169
50 5.9 -0.093605 72.3006
50 6 -0.216854 72.2229
50 6.1 -0.340103 72.0891
50 6.2 -0.463352 71.9079
50 6.3 -0.586602 71.69
50 6.4 -0.709851 71.4468
50 6.5 -0.8331 71.189
50 6.6 -0.956349 70.9256
50 6.7 -1.0796 70.6638
50 6.8 -1.20285 70.4085
50 6.9 -1.3261 70.1631
50 7 -1.44935 69.9297
50 7.1 -1.5726 69.7098
50 7.2 -1.69584 69.5044
50 7.3 -1.81909 69.3145
50 7.4 -1.94234 69.1407
50 7.5 -2.06559 68.9835
50 7.6 -2.18884 68.8429
50 7.7 -2.31209 68.719
50 7.79999 -2.43534 68.6113
50 7.89999 -2.55859 68.52
50 7.99999 -2.68184 68.4451
50 8.09999 -2.80509 68.387
50 8.2 -2.92834 68.3463
50 8.3 -3.05159 68.3236
50 8.4 -3.17484 68.3194
50 8.5 -3.29809 68.3336
50 8.6 -3.42134 68.3661
50 8.7 -3.54459 68.4162
50 8.8 -3.66784 68.4834
50 8.9 -3.79108 68.5673
50 9 -3.91433 68.6674
50 9.1 -4.03758 68.7838
50 9.2 -4.16083 68.9167
50 9.3 -4.28408 69.0663
50 9.4 -4.40733 69.2325
50 9.5 -4.53058 69.415
50 9.6 -4.65383 69.6133
50 9.7 -4.77708 69.8267
50 9.8 -4.90033 70.054
50 9.9 -5.02358 70.2941
50 10 -5.14683 70.5452
50 10.1 -5.27008 70.8045
50 10.2 -5.39333 71.0679
50 10.3 -5.51658 71.3293
50 10.4 -5.63983 71.5805
50 10.5 -5.76308 71.8115
50 10.6 -5.88633 72.011
50 10.7 -6.00958 72.1678
50 10.8 -6.13283 72.2722
50 10.9 -6.25608 72.3172
50 11 -6.37933 72.2996
50 11.1 -6.50258 72.2207
50 11.2 -6.62583 72.0858
50 11.3 -6.74908 71.9038
50 11.4 -6.87233 71.6852
50 11.5 -6.99558 71.4416
50 11.6 -7.11883 71.1836
50 11.7 -7.24208 70.9202
50 11.8 -7.36533 70.6584
50 11.9 -7.48858 70.4033
50 12 -7.61183 70.1581
50 12.1 -7.73508 69.925
50 12.2 -7.85833 69.7054
50 12.3 -7.98158 69.5003
50 12.4 -8.10483 69.3108
50 12.5 -8.22808 69.1373
50 12.6 -8.35133 68.9804
50 12.7 -8.47458 68.8402
50 12.8 -8.59783 68.7166
50 12.9 -8.72108 68.6093
50 13 -8.84433 68.5183
50 13.1 -8.96758 68.4437
50 13.2 -9.09082 68.386
50 13.3 -9.21408 68.3456
50 13.4 -9.33732 68.3233
50 13.5 -9.46058 68.3195
50 13.6 -9.58382 68.3341
50 13.7 -9.70707 68.3669
50 13.8 -9.83032 68.4174
50 13.9 -9.95357 68.485
50 14 -10.0768 68.5692
50 14.1 -10.2001 68.6696
50 14.2 -10.3233 68.7864
50 14.3 -10.4466 68.9196
50 14.4 -10.5698 69.0695
50 14.5 -10.6931 69.2361
50 14.6 -10.8163 69.4189
50 14.7 -10.9396 69.6176
50 14.8 -11.0628 69.8312
50 14.9 -11.1861 70.0589
50 15 -11.3093 70.2992
50 15.1 -11.4326 70.5505
50 15.2 -11.5558 70.8099
50 15.3 -11.6791 71.0734
50 15.4 -11.8023 71.3346
50 15.5 -11.9256 71.5855
50 15.6 -12.0488 71.816
50 15.7 -12.1721 72.0147
50 15.8 -12.2953 72.1705
50 15.9 -12.4186 72.2738
50 16 -12.5418 72.3174
50 16.1 -12.6651 72.2986
50 16.2 -12.7883 72.2184
50 16.3 -12.9116 72.0825
50 16.4 -13.0348 71.8996
50 16.5 -13.1581 71.6804
50 16.6 -13.2813 71.4364
50 16.7 -13.4046 71.1781
50 16.8 -13.5278 70.9147
50 16.9 -13.6511 70.6531
50 17 -13.7743 70.3981
50 17.1 -13.8976 70.1532
50 17.2 -14.0208 69.9203
50 17.3 -14.1441 69.701
50 17.4 -14.2673 69.4962
50 17.5 -14.3906 69.307
50 17.6 -14.5138 69.1339
50 17.7 -14.6371 68.9774
50 17.8 -14.7603 68.8375
50 17.9 -14.8836 68.7142
50 18 -15.0068 68.6072
50 18.1 -15.1301 68.5166
50 18.2 -15.2533 68.4423
50 18.3 -15.3766 68.385
50 18.4 -15.4998 68.345
50 18.5 -15.6231 68.3231
50 18.6 -15.7463 68.3196
50 18.7 -15.8696 68.3346
50 18.8 -15.9928 68.3678
50 18.9 -16.1161 68.4187
50 19 -16.2393 68.4866
50 19.1 -16.3626 68.5711
50 19.2 -16.4858 68.6719
50 19.3 -16.6091 68.789
50 19.4 -16.7323 68.9226
50 19.5 -16.8556 69.0728
50 19.6 -16.9788 69.2397
50 19.7 -17.1021 69.4229
50 19.8 -17.2253 69.6219
50 19.9 -17.3486 69.8358
50 20 -17.4718 70.0637
50 20.1 -17.5951 70.3043
50 20.2 -17.7183 70.5558
50 20.3 -17.8416 70.8154
50 20.4 -17.9648 71.0788
50 20.5 -18.0881 71.34
50 20.6 -18.2113 71.5906
50 20.7 -18.3346 71.8204
50 20.8 -18.4578 72.0184
50 20.9 -18.5811 72.1732
50 21 -18.7043 72.2753
50 21.1 -18.8276 72.3177
50 21.2 -18.9508 72.2975
50 21.3 -19.0741 72.2161
50 21.4 -19.1973 72.0792
50 21.5 -19.3206 71.8954
50 21.6 -19.4438 71.6756
50 21.7 -19.5671 71.4311
50 21.8 -19.6903 71.1727
50 21.9 -19.8136 70.9092
50 22 -19.9368 70.6477
50 22.1 -20.0601 70.3929
50 22.2 -20.1833 70.1482
50 22.3 -20.3066 69.9156
50 22.4 -20.4298 69.6966
50 22.5 -20.5531 69.4922
50 22.6 -20.6763 69.3032
50 22.7001 -20.7996 69.1305
50 22.8001 -20.9228 68.9743
50 22.9001 -21.0461 68.8348
50 23.0001 -21.1693 68.7118
50 23.1001 -21.2926 68.6052
50 23.2001 -21.4158 68.5149
50 23.3001 -21.5391 68.441
50 23.4001 -21.6623 68.3839
50 23.5001 -21.7856 68.3444
50 23.6001 -21.9088 68.3228
50 23.7001 -22.0321 68.3197
50 23.8001 -22.1553 68.3351
50 23.9001 -22.2786 68.3687
50 24.0001 -22.4018 68.4199
50 24.1001 -22.5251 68.4882
50 24.2001 -22.6483 68.573
50 24.3001 -22.7715 68.6741
50 24.4001 -22.8948 68.7916
50 24.5001 -23.018 68.9255
50 24.6001 -23.1413 69.0761
50 24.7001 -23.2645 69.2433
50 24.8001 -23.3878 69.4269
50 24.9001 -23.511 69.6262
50 25.0001 -23.6343 69.8404
50 25.1001 -23.7575 70.0686
50 25.2001 -23.8808 70.3094
50 25.3001 -24.004 70.5611
50 25.4001 -24.1273 70.8208
50 25.5001 -24.2505 71.0843
50 25.6001 -24.3738 71.3453
50 25.7001 -24.497 71.5956
50 25.8001 -24.6203 71.8249
50 25.9001 -24.7435 72.0221
50 26.0001 -24.8668 72.1759
50 26.1001 -24.99 72.2768
50 26.2001 -25.1133 72.3179
50 26.3001 -25.2365 72.2964
50 26.4001 -25.3598 72.2139
50 26.5001 -25.483 72.0758
50 26.6001 -25.6063 71.8911
50 26.7001 -25.7295 71.6707
50 26.8001 -25.8528 71.4259
50 26.9001 -25.976 71.1673
50 27.0001 -26.0993 70.9038
50 27.1001 -26.2225 70.6423
50 27.2001 -26.3458 70.3878
50 27.3001 -26.469 70.1433
50 27.4001 -26.5923 69.9109
50 27.5001 -26.7155 69.6922
50 27.6001 -26.8388 69.4881
50 27.7001 -26.962 69.2995
50 27.8001 -27.0853 69.1271
50 27.9001 -27.2085 68.9712
50 28.0001 -27.3318 68.8321
50 28.1001 -27.455 68.7094
50 28.2001 -27.5783 68.6031
50 28.3001 -27.7015 68.5132
50 28.4001 -27.8248 68.4396
50 28.5001 -27.948 68.3829
50 28.6001 -28.0713 68.3437
50 28.7001 -28.1945 68.3226
50 28.8001 -28.3178 68.3198
50 28.9001 -28.441 68.3356
50 29.0001 -28.5643 68.3695
50 29.1001 -28.6875 68.4211
50 29.2001 -28.8108 68.4898
50 29.3001 -28.934 68.5749
50 29.4001 -29.0573 68.6764
50 29.5001 -29.1805 68.7942
50 29.6001 -29.3038 68.9285
50 29.7001 -29.427 69.0794
50 29.8001 -29.5503 69.247
50 29.9001 -29.6735 69.4308
50 30.0001 -29.7968 69.6305
50 30.1001 -29.92 69.845
50 30.2001 -30.0433 70.0734
50 30.3001 -30.1665 70.3145
50 30.4001 -30.2898 70.5664
50 30.5001 -30.413 70.8262
50 30.6001 -30.5363 71.0897
50 30.7001 -30.6595 71.3506
50 30.8001 -30.7828 71.6006
50 30.9001 -30.906 71.8294
50 31.0001 -31.0293 72.0257
50 31.1001 -31.1525 72.1786
50 31.2001 -31.2758 72.2783
50 31.3001 -31.399 72.3181
50 31.4001 -31.5223 72.2953
50 31.5001 -31.6455 72.2115
50 31.6001 -31.7688 72.0724
50 31.7001 -31.892 71.8869
50 31.8001 -32.0153 71.6658
50 31.9001 -32.1385 71.4206
50 32.0001 -32.2618 71.1618
50 32.1001 -32.385 70.8983
50 32.2001 -32.5083 70.637
50 32.3001 -32.6315 70.3826
50 32.4001 -32.7548 70.1384
50 32.5001 -32.878 69.9063
50 32.6001 -33.0013 69.6878
50 32.7001 -33.1245 69.4841
50 32.8001 -33.2478 69.2958
50 32.9001 -33.371 69.1237
50 33.0001 -33.4943 68.9682
50 33.1001 -33.6175 68.8294
50 33.2001 -33.7407 68.7071
50 33.3001 -33.864 68.6012
50 33.4001 -33.9872 68.5115
50 33.5001 -34.1105 68.4383
50 33.6001 -34.2337 68.382
50 33.7001 -34.357 68.3431
50 33.8001 -34.4802 68.3223
50 33.9001 -34.6035 68.32
50 34.0001 -34.7267 68.3361
50 34.1001 -34.85 68.3704
50 34.2001 -34.9732 68.4224
50 34.3 -35.0965 68.4913
50 34.4 -35.2197 68.5768
50 34.5 -35.343 68.6786
50 34.6 -35.4662 68.7967
50 34.7 -35.5895 68.9314
50 34.8 -35.7127 69.0826
50 34.9 -35.836 69.2505
50 35 -35.9592 69.4347
50 35.1 -36.0825 69.6346
50 35.2 -36.2057 69.8494
50 35.3 -36.3289 70.0782
50 35.4 -36.4522 70.3195
50 35.5 -36.5754 70.5715
50 35.6 -36.6987 70.8315
50 35.7 -36.8219 71.095
50 35.8 -36.9452 71.3558
50 35.9 -37.0684 71.6054
50 36 -37.1917 71.8336
50 36.1 -37.3149 72.0292
50 36.2 -37.4382 72.1811
50 36.3 -37.5614 72.2796
50 36.4 -37.6847 72.3183
50 36.5 -37.8079 72.2942
50 36.6 -37.9312 72.2093
50 36.7 -38.0544 72.0692
50 36.8 -38.1777 71.8828
50 36.9 -38.3009 71.6612
50 37 -38.4242 71.4156
50 37.1 -38.5474 71.1566
50 37.2 -38.6706 70.8931
50 37.3 -38.7939 70.6319
50 37.4 -38.9171 70.3777
50 37.5 -39.0404 70.1337
50 37.6 -39.1636 69.9019
50 37.7 -39.2869 69.6837
50 37.8 -39.4101 69.4802
50 37.9 -39.5334 69.2922
50 38 -39.6566 69.1205
50 38.1 -39.7799 68.9653
50 38.2 -39.9031 68.8268
50 38.3 -40.0264 68.7048
50 38.4 -40.1496 68.5992
50 38.5 -40.2729 68.5099
50 38.6 -40.3961 68.437
50 38.7 -40.5194 68.381
50 38.8 -40.6426 68.3425
50 38.9 -40.7659 68.3221
50 39 -40.8891 68.3201
50 39.1 -41.0123 68.3366
50 39.2 -41.1356 68.3713
50 39.3 -41.2588 68.4236
50 39.4 -41.3821 68.4929
50 39.5 -41.5053 68.5787
50 39.6 -41.6286 68.6808
50 39.7 -41.7518 68.7992
50 39.8 -41.8751 68.9342
50 39.9 -41.9983 69.0858
50 40 -42.1216 69.254
50 40.1 -42.2448 69.4385
50 40.2 -42.3681 69.6387
50 40.3 -42.4913 69.8538
50 40.4 -42.6146 70.0828
50 40.5 -42.7378 70.3244
50 40.6 -42.8611 70.5766
50 40.7 -42.9843 70.8367
50 40.7999 -43.1076 71.1002
50 40.8999 -43.2308 71.3608
50 40.9999 -43.354 71.6101
50 41.0999 -43.4773 71.8378
50 41.1999 -43.6005 72.0327
50 41.2999 -43.7238 72.1836
50 41.3999 -43.847 72.281
50 41.4999 -43.9703 72.3184
50 41.5999 -44.0935 72.2931
50 41.6999 -44.2168 72.207
50 41.7999 -44.34 72.0659
50 41.8999 -44.4633 71.8788
50 41.9999 -44.5865 71.6565
50 42.0999 -44.7098 71.4106
50 42.1999 -44.833 71.1515
50 42.2999 -44.9563 70.8879
50 42.3999 -45.0795 70.6268
50 42.4999 -45.2028 70.3728
50 42.5999 -45.326 70.129
50 42.6999 -45.4493 69.8974
50 42.7999 -45.5725 69.6795
50 42.8999 -45.6958 69.4763
50 42.9999 -45.819 69.2887
50 43.0999 -45.9422 69.1173
50 43.1999 -46.0655 68.9624
50 43.2999 -46.1887 68.8242
50 43.3999 -46.312 68.7026
50 43.4999 -46.4352 68.5973
50 43.5999 -46.5585 68.5083
50 43.6999 -46.6817 68.4358
50 43.7999 -46.805 68.3801
50 43.8999 -46.9282 68.342
50 43.9999 -47.0515 68.3219
50 44.0999 -47.1747 68.3203
50 44.1999 -47.298 68.3371
50 44.2999 -47.4212 68.3721
50 44.3999 -47.5445 68.4248
50 44.4999 -47.6677 68.4944
50 44.5999 -47.791 68.5805
50 44.6999 -47.9142 68.683
50 44.7999 -48.0374 68.8017
50 44.8999 -48.1607 68.937
50 44.9999 -48.2839 69.0889
50 45.0999 -48.4072 69.2575
50 45.1999 -48.5304 69.4423
50 45.2999 -48.6537 69.6428
50 45.3999 -48.7769 69.8582
50 45.4999 -48.9002 70.0875
50 45.5999 -49.0234 70.3292
50 45.6999 -49.1467 70.5817
50 45.7999 -49.2699 70.8419
50 45.8999 -49.3932 71.1054
50 45.9999 -49.5164 71.3659
50 46.0999 -49.6397 71.6149
50 46.1999 -49.7629 71.842
50 46.2999 -49.8862 72.0361
50 46.3999 -50.0094 72.1861
50 46.4999 -50.1327 72.2823
50 46.5999 -50.2559 72.3185
50 46.6999 -50.3792 72.292
50 46.7999 -50.5024 72.2047
50 46.8999 -50.6256 72.0626
50 46.9999 -50.7489 71.8747
50 47.0999 -50.8721 71.6519
50 47.1999 -50.9954 71.4056
50 47.2999 -51.1186 71.1463
50 47.3998 -51.2419 70.8827
50 47.4998 -51.3651 70.6217
50 47.5998 -51.4884 70.3678
50 47.6998 -51.6116 70.1243
50 47.7998 -51.7349 69.893
50 47.8998 -51.8581 69.6754
50 47.9998 -51.9814 69.4725
50 48.0998 -52.1046 69.2851
50 48.1998 -52.2279 69.114
50 48.2998 -52.3511 68.9595
50 48.3998 -52.4744 68.8217
50 48.4998 -52.5976 68.7004
50 48.5998 -52.7209 68.5954
50 48.6998 -52.8441 68.5067
50 48.7998 -52.9673 68.4345
50 48.8998 -53.0906 68.3792
50 48.9998 -53.2138 68.3414
50 49.0998 -53.3371 68.3217
50 49.1998 -53.4603 68.3204
50 49.2998 -53.5836 68.3376
50 49.3998 -53.7068 68.373
50 49.4998 -53.8301 68.426
50 49.5998 -53.9533 68.4959
50 49.6998 -54.0766 68.5824
50 49.7998 -54.1998 68.6852
50 49.8998 -54.3231 68.8042
50 49.9998 -54.4463 68.9398
50 50.0998 -54.5696 69.0921
50 50.1998 -54.6928 69.261
50 50.2998 -54.8161 69.4461
50 50.3998 -54.9393 69.6469
50 50.4998 -55.0626 69.8626
50 50.5998 -55.1858 70.0921
50 50.6998 -55.309 70.3341
50 50.7998 -55.4323 70.5867
50 50.8998 -55.5555 70.847
50 50.9998 -55.6788 71.1106
50 51.0998 -55.802 71.3709
50 51.1998 -55.9253 71.6196
50 51.2998 -56.0485 71.8462
50 51.3998 -56.1718 72.0396
50 51.4998 -56.295 72.1885
50 51.5998 -56.4183 72.2836
50 51.6998 -56.5415 72.3186
50 51.7998 -56.6648 72.2909
50 51.8998 -56.788 72.2024
50 51.9998 -56.9113 72.0593
50 52.0998 -57.0345 71.8706
50 52.1998 -57.1578 71.6472
50 52.2998 -57.281 71.4006
50 52.3998 -57.4043 71.1411
50 52.4998 -57.5275 70.8775
50 52.5998 -57.6507 70.6166
50 52.6998 -57.774 70.3629
50 52.7998 -57.8972 70.1196
50 52.8998 -58.0205 69.8885
50 52.9998 -58.1437 69.6712
50 53.0998 -58.267 69.4686
50 53.1998 -58.3902 69.2816
50 53.2998 -58.5135 69.1108
50 53.3998 -58.6367 68.9566
50 53.4998 -58.76 68.8191
50 53.5998 -58.8832 68.6981
50 53.6998 -59.0065 68.5935
50 53.7998 -59.1297 68.5051
50 53.8997 -59.253 68.4332
50 53.9997 -59.3762 68.3783
50 54.0997 -59.4995 68.3408
50 54.1997 -59.6227 68.3215
50 54.2997 -59.746 68.3206
50 54.3997 -59.8692 68.3382
50 54.4997 -59.9924 68.3739
50 54.5997 -60.1157 68.4272
50 54.6997 -60.2389 68.4975
50 54.7997 -60.3622 68.5843
50 54.8997 -60.4854 68.6873
50 54.9997 -60.6087 68.8068
50 55.0997 -60.7319 68.9427
50 55.1997 -60.8552 69.0953
50 55.2997 -60.9784 69.2645
50 55.3997 -61.1017 69.4499
50 55.4997 -61.2249 69.6511
50 55.5997 -61.3482 69.867
50 55.6997 -61.4714 70.0968
50 55.7997 -61.5947 70.339
50 55.8997 -61.7179 70.5918
50 55.9997 -61.8412 70.8522
50 56.0997 -61.9644 71.1158
50 56.1997 -62.0877 71.376
50 56.2997 -62.2109 71.6243
50 56.3997 -62.3342 71.8504
50 56.4997 -62.4574 72.043
50 56.5997 -62.5806 72.1909
50 56.6997 -62.7039 72.2849
50 56.7997 -62.8271 72.3186
50 56.8997 -62.9504 72.2897
50 56.9997 -63.0736 72.2001
50 57.0997 -63.1969 72.056
50 57.1997 -63.3201 71.8665
50 57.2997 -63.4434 71.6425
50 57.3997 -63.5666 71.3955
50 57.4997 -63.6899 71.1359
50 57.5997 -63.8131 70.8724
50 57.6997 -63.9364 70.6115
50 57.7997 -64.0596 70.358
50 57.8997 -64.1829 70.1149
50 57.9997 -64.3061 69.8841
50 58.0997 -64.4294 69.6671
50 58.1997 -64.5526 69.4648
50 58.2997 -64.6758 69.2781
50 58.3997 -64.7991 69.1076
50 58.4997 -64.9223 68.9538
50 58.5997 -65.0456 68.8166
50 58.6997 -65.1688 68.6959
50 58.7997 -65.2921 68.5916
50 58.8997 -65.4153 68.5035
50 58.9997 -65.5386 68.432
50 59.0997 -65.6618 68.3773
50 59.1997 -65.7851 68.3403
50 59.2997 -65.9083 68.3213
50 59.3997 -66.0316 68.3207
50 59.4997 -66.1548 68.3387
50 59.5997 -66.2781 68.3748
50 59.6997 -66.4013 68.4284
50 59.7997 -66.5246 68.499
50 59.8997 -66.6478 68.5861
50 59.9997 -66.7711 68.6895
50 60.0997 -66.8943 68.8093
50 60.1997 -67.0176 68.9455
50 60.2997 -67.1408 69.0985
50 60.3997 -67.264 69.268
50 60.4996 -67.3873 69.4538
50 60.5996 -67.5105 69.6552
50 60.6996 -67.6338 69.8714
50 60.7996 -67.757 70.1015
50 60.8996 -67.8803 70.3439
50 60.9996 -68.0035 70.5969
50 61.0996 -68.1268 70.8574
50 61.1996 -68.25 71.121
50 61.2996 -68.3733 71.3811
50 61.3996 -68.4965 71.629
50 61.4996 -68.6198 71.8546
50 61.5996 -68.743 72.0463
50 61.6996 -68.8663 72.1933
50 61.7996 -68.9895 72.2862
50 61.8996 -69.1128 72.3187
50 61.9996 -69.236 72.2885
50 62.0996 -69.3593 72.1978
50 62.1996 -69.4825 72.0526
50 62.2996 -69.6058 71.8623
50 62.3996 -69.729 71.6378
50 62.4996 -69.8522 71.3905
50 62.5996 -69.9755 71.1307
50 62.6996 -70.0987 70.8672
50 62.7996 -70.222 70.6064
50 62.8996 -70.3452 70.3531
50 62.9996 -70.4685 70.1102
50 63.0996 -70.5917 69.8797
50 63.1996 -70.715 69.6629
50 63.2996 -70.8382 69.4609
50 63.3996 -70.9615 69.2746
50 63.4996 -71.0847 69.1044
50 63.5996 -71.208 68.9509
50 63.6996 -71.3312 68.814
50 63.7996 -71.4545 68.6937
50 63.8996 -71.5777 68.5897
50 63.9996 -71.701 68.502
50 64.0996 -71.8242 68.4307
50 64.1996 -71.9474 68.3764
50 64.2996 -72.0707 68.3397
50 64.3996 -72.1939 68.3211
50 64.4996 -72.3172 68.3209
50 64.5996 -72.4404 68.3392
50 64.6996 -72.5637 68.3757
50 64.7996 -72.6869 68.4297
50 64.8996 -72.8102 68.5006
50 64.9996 -72.9334 68.588
50 65.0996 -73.0567 68.6918
50 65.1996 -73.1799 68.8118
50 65.2996 -73.3032 68.9484
50 65.3996 -73.4264 69.1016
50 65.4996 -73.5497 69.2715
50 65.5996 -73.6729 69.4576
50 65.6996 -73.7962 69.6593
50 65.7996 -73.9194 69.8758
50 65.8996 -74.0427 70.1061
50 65.9996 -74.1659 70.3488
50 66.0996 -74.2892 70.602
50 66.1996 -74.4124 70.8626
50 66.2996 -74.5356 71.1262
50 66.3996 -74.6589 71.3861
50 66.4996 -74.7821 71.6337
50 66.5996 -74.9054 71.8587
50 66.6996 -75.0286 72.0497
50 66.7996 -75.1519 72.1957
50 66.8996 -75.2751 72.2874
50 66.9995 -75.3984 72.3187
50 67.0995 -75.5216 72.2873
50 67.1995 -75.6449 72.1954
50 67.2995 -75.7681 72.0493
50 67.3995 -75.8914 71.8582
50 67.4995 -76.0146 71.6331
50 67.5995 -76.1379 71.3855
50 67.6995 -76.2611 71.1255
50 67.7995 -76.3844 70.862
50 67.8995 -76.5076 70.6013
50 67.9995 -76.6309 70.3482
50 68.0995 -76.7541 70.1055
50 68.1995 -76.8773 69.8753
50 68.2995 -77.0006 69.6588
50 68.3995 -77.1238 69.4571
50 68.4995 -77.2471 69.271
50 68.5995 -77.3703 69.1012
50 68.6995 -77.4936 68.948
50 68.7995 -77.6168 68.8115
50 68.8995 -77.7401 68.6915
50 68.9995 -77.8633 68.5878
50 69.0995 -77.9866 68.5004
50 69.1995 -78.1098 68.4295
50 69.2995 -78.2331 68.3755
50 69.3995 -78.3563 68.3392
50 69.4995 -78.4796 68.3209
50 69.5995 -78.6028 68.3211
50 69.6995 -78.7261 68.3398
50 69.7995 -78.8493 68.3766
50 69.8995 -78.9726 68.4309
50 69.9995 -79.0958 68.5022
50 70.0995 -79.219 68.5899
50 70.1995 -79.3423 68.694
50 70.2995 -79.4655 68.8144
50 70.3995 -79.5888 68.9513
50 70.4995 -79.712 69.1048
50 70.5995 -79.8353 69.275
50 70.6995 -79.9585 69.4614
50 70.7995 -80.0818 69.6634
50 70.8995 -80.205 69.8802
50 70.9995 -80.3283 70.1108
50 71.0995 -80.4515 70.3537
50 71.1995 -80.5748 70.6071
50 71.2995 -80.698 70.8678
50 71.3995 -80.8213 71.1314
50 71.4995 -80.9445 71.3911
50 71.5995 -81.0678 71.6384
50 71.6995 -81.191 71.8629
50 71.7995 -81.3143 72.0531
50 71.8995 -81.4375 72.1981
50 71.9995 -81.5608 72.2887
50 72.0995 -81.684 72.3187
50 72.1995 -81.8072 72.286
50 72.2995 -81.9305 72.193
50 72.3995 -82.0537 72.0459
50 72.4995 -82.177 71.854
50 72.5995 -82.3002 71.6284
50 72.6995 -82.4235 71.3804
50 72.7995 -82.5467 71.1203
50 72.8995 -82.67 70.8568
50 72.9995 -82.7932 70.5963
